
      	X(nS)     	Ch1(mV)      


 1    	0.0000    	-3.431274   
 2    	0.0449    	-4.293762   
 3    	0.0899    	-3.790649   
 4    	0.1348    	-3.071899   
 5    	0.1798    	-2.856262   
 6    	0.2247    	-2.928161   
 7    	0.2697    	-3.575012   
 8    	0.3146    	-3.143799   
 9    	0.3596    	-3.862549   
 10   	0.4045    	-4.006287   
 11   	0.4494    	-5.084412   
 12   	0.4944    	-4.006287   
 13   	0.5393    	-5.156311   
 14   	0.5843    	-4.653137   
 15   	0.6292    	-4.221923   
 16   	0.6742    	-3.575012   
 17   	0.7191    	-3.790649   
 18   	0.7640    	-3.431274   
 19   	0.8090    	-4.293762   
 20   	0.8539    	-4.150024   
 21   	0.8989    	-3.071899   
 22   	0.9438    	-3.503174   
 23   	0.9888    	-4.509399   
 24   	1.0337    	-4.150024   
 25   	1.0787    	-4.940673   
 26   	1.1236    	-3.790649   
 27   	1.1685    	-4.150024   
 28   	1.2135    	-3.718811   
 29   	1.2584    	-3.287536   
 30   	1.3034    	-2.928161   
 31   	1.3483    	-2.928161   
 32   	1.3933    	-2.353149   
 33   	1.4382    	-3.862549   
 34   	1.4831    	-3.934387   
 35   	1.5281    	-3.215637   
 36   	1.5730    	-3.575012   
 37   	1.6180    	-3.575012   
 38   	1.6629    	-3.431274   
 39   	1.7079    	-3.431274   
 40   	1.7528    	-3.934387   
 41   	1.7978    	-3.718811   
 42   	1.8427    	-4.365662   
 43   	1.8876    	-3.862549   
 44   	1.9326    	-3.287536   
 45   	1.9775    	-3.646911   
 46   	2.0225    	-4.078186   
 47   	2.0674    	-4.006287   
 48   	2.1124    	-3.287536   
 49   	2.1573    	-4.150024   
 50   	2.2022    	-3.718811   
 51   	2.2472    	-3.431274   
 52   	2.2921    	-3.359436   
 53   	2.3371    	-3.071899   
 54   	2.3820    	-3.575012   
 55   	2.4270    	-3.431274   
 56   	2.4719    	-4.581298   
 57   	2.5169    	-4.725037   
 58   	2.5618    	-4.653137   
 59   	2.6067    	-3.575012   
 60   	2.6517    	-3.287536   
 61   	2.6966    	-2.784424   
 62   	2.7416    	-2.928161   
 63   	2.7865    	-2.928161   
 64   	2.8315    	-3.071899   
 65   	2.8764    	-3.143799   
 66   	2.9213    	-3.862549   
 67   	2.9663    	-3.359436   
 68   	3.0112    	-3.431274   
 69   	3.0562    	-3.790649   
 70   	3.1011    	-3.646911   
 71   	3.1461    	-3.862549   
 72   	3.1910    	-3.431274   
 73   	3.2360    	-3.862549   
 74   	3.2809    	-4.509399   
 75   	3.3258    	-4.437561   
 76   	3.3708    	-4.509399   
 77   	3.4157    	-4.725037   
 78   	3.4607    	-4.150024   
 79   	3.5056    	-4.078186   
 80   	3.5506    	-3.646911   
 81   	3.5955    	-3.359436   
 82   	3.6404    	-3.287536   
 83   	3.6854    	-3.862549   
 84   	3.7303    	-3.000061   
 85   	3.7753    	-3.503174   
 86   	3.8202    	-3.575012   
 87   	3.8652    	-3.934387   
 88   	3.9101    	-3.934387   
 89   	3.9551    	-3.646911   
 90   	4.0000    	-2.928161   
 91   	4.0449    	-3.143799   
 92   	4.0899    	-3.503174   
 93   	4.1348    	-3.215637   
 94   	4.1798    	-3.143799   
 95   	4.2247    	-3.718811   
 96   	4.2697    	-4.221923   
 97   	4.3146    	-2.496887   
 98   	4.3596    	-3.718811   
 99   	4.4045    	-3.862549   
 100  	4.4494    	-3.718811   
 101  	4.4944    	-3.934387   
 102  	4.5393    	-2.928161   
 103  	4.5843    	-3.503174   
 104  	4.6292    	-3.646911   
 105  	4.6742    	-3.575012   
 106  	4.7191    	-3.071899   
 107  	4.7640    	-4.078186   
 108  	4.8090    	-3.503174   
 109  	4.8539    	-3.071899   
 110  	4.8989    	-2.496887   
 111  	4.9438    	-2.568787   
 112  	4.9888    	-2.640686   
 113  	5.0337    	-3.359436   
 114  	5.0787    	-2.928161   
 115  	5.1236    	-2.568787   
 116  	5.1685    	-3.071899   
 117  	5.2135    	-3.287536   
 118  	5.2584    	-2.784424   
 119  	5.3034    	-3.215637   
 120  	5.3483    	-3.718811   
 121  	5.3933    	-3.790649   
 122  	5.4382    	-1.921936   
 123  	5.4831    	-3.503174   
 124  	5.5281    	-3.718811   
 125  	5.5730    	-4.221923   
 126  	5.6180    	-3.934387   
 127  	5.6629    	-3.000061   
 128  	5.7079    	-3.862549   
 129  	5.7528    	-3.359436   
 130  	5.7978    	-3.000061   
 131  	5.8427    	-3.071899   
 132  	5.8876    	-1.634399   
 133  	5.9326    	-2.281311   
 134  	5.9775    	-1.921936   
 135  	6.0225    	-1.778137   
 136  	6.0674    	-1.850037   
 137  	6.1124    	-2.568787   
 138  	6.1573    	-2.856262   
 139  	6.2022    	-2.209412   
 140  	6.2472    	-2.856262   
 141  	6.2921    	-3.143799   
 142  	6.3371    	-3.287536   
 143  	6.3820    	-2.209412   
 144  	6.4270    	-1.850037   
 145  	6.4719    	-2.065674   
 146  	6.5169    	-2.065674   
 147  	6.5618    	-3.000061   
 148  	6.6067    	-3.143799   
 149  	6.6517    	-3.071899   
 150  	6.6966    	-3.215637   
 151  	6.7416    	-2.425049   
 152  	6.7865    	-2.353149   
 153  	6.8315    	-3.287536   
 154  	6.8764    	-3.646911   
 155  	6.9213    	-3.934387   
 156  	6.9663    	-3.575012   
 157  	7.0112    	-4.006287   
 158  	7.0562    	-2.353149   
 159  	7.1011    	-2.353149   
 160  	7.1461    	-2.712524   
 161  	7.1910    	-4.078186   
 162  	7.2360    	-3.143799   
 163  	7.2809    	-3.287536   
 164  	7.3258    	-4.293762   
 165  	7.3708    	-4.221923   
 166  	7.4157    	-4.221923   
 167  	7.4607    	-3.934387   
 168  	7.5056    	-3.431274   
 169  	7.5506    	-4.437561   
 170  	7.5955    	-3.071899   
 171  	7.6404    	-2.784424   
 172  	7.6854    	-2.712524   
 173  	7.7303    	-2.065674   
 174  	7.7753    	-2.856262   
 175  	7.8202    	-4.150024   
 176  	7.8652    	-3.790649   
 177  	7.9101    	-3.790649   
 178  	7.9551    	-3.000061   
 179  	8.0000    	-3.790649   
 180  	8.0449    	-4.221923   
 181  	8.0899    	-4.653137   
 182  	8.1348    	-3.934387   
 183  	8.1798    	-2.928161   
 184  	8.2247    	-3.431274   
 185  	8.2697    	-2.784424   
 186  	8.3146    	-2.784424   
 187  	8.3596    	-2.568787   
 188  	8.4045    	-2.712524   
 189  	8.4494    	-2.568787   
 190  	8.4944    	-3.934387   
 191  	8.5393    	-3.143799   
 192  	8.5843    	-4.078186   
 193  	8.6292    	-4.293762   
 194  	8.6742    	-3.503174   
 195  	8.7191    	-3.503174   
 196  	8.7640    	-2.712524   
 197  	8.8090    	-3.143799   
 198  	8.8539    	-3.862549   
 199  	8.8989    	-3.359436   
 200  	8.9438    	-3.934387   
 201  	8.9888    	-4.078186   
 202  	9.0337    	-3.862549   
 203  	9.0787    	-4.006287   
 204  	9.1236    	-2.928161   
 205  	9.1685    	-3.215637   
 206  	9.2135    	-3.646911   
 207  	9.2584    	-3.934387   
 208  	9.3034    	-3.718811   
 209  	9.3483    	-3.934387   
 210  	9.3933    	-3.431274   
 211  	9.4382    	-2.784424   
 212  	9.4831    	-2.568787   
 213  	9.5281    	-3.359436   
 214  	9.5730    	-3.215637   
 215  	9.6180    	-2.784424   
 216  	9.6629    	-3.143799   
 217  	9.7079    	-3.071899   
 218  	9.7528    	-1.993774   
 219  	9.7978    	-1.778137   
 220  	9.8427    	-2.137512   
 221  	9.8876    	-2.928161   
 222  	9.9326    	-2.640686   
 223  	9.9775    	-2.784424   
 224  	10.0225   	-2.568787   
 225  	10.0674   	-2.928161   
 226  	10.1124   	-3.071899   
 227  	10.1573   	-3.575012   
 228  	10.2022   	-4.437561   
 229  	10.2472   	-3.934387   
 230  	10.2921   	-4.293762   
 231  	10.3371   	-4.365662   
 232  	10.3820   	-3.718811   
 233  	10.4270   	-3.215637   
 234  	10.4719   	-3.000061   
 235  	10.5169   	-3.143799   
 236  	10.5618   	-3.575012   
 237  	10.6067   	-4.581298   
 238  	10.6517   	-3.503174   
 239  	10.6966   	-3.000061   
 240  	10.7416   	-2.856262   
 241  	10.7865   	-4.653137   
 242  	10.8315   	-4.365662   
 243  	10.8764   	-4.293762   
 244  	10.9213   	-4.437561   
 245  	10.9663   	-3.718811   
 246  	11.0112   	-4.078186   
 247  	11.0562   	-4.293762   
 248  	11.1011   	-3.862549   
 249  	11.1461   	-3.143799   
 250  	11.1910   	-4.221923   
 251  	11.2360   	-4.725037   
 252  	11.2809   	-4.078186   
 253  	11.3258   	-4.150024   
 254  	11.3708   	-3.646911   
 255  	11.4157   	-4.221923   
 256  	11.4607   	-3.718811   
 257  	11.5056   	-4.150024   
 258  	11.5506   	-4.581298   
 259  	11.5955   	-4.293762   
 260  	11.6404   	-4.509399   
 261  	11.6854   	-4.221923   
 262  	11.7303   	-3.862549   
 263  	11.7753   	-4.437561   
 264  	11.8202   	-4.725037   
 265  	11.8652   	-4.078186   
 266  	11.9101   	-4.078186   
 267  	11.9551   	-4.150024   
 268  	12.0000   	-3.790649   
 269  	12.0449   	-3.503174   
 270  	12.0899   	-4.221923   
 271  	12.1348   	-4.078186   
 272  	12.1798   	-3.790649   
 273  	12.2247   	-3.359436   
 274  	12.2697   	-3.503174   
 275  	12.3146   	-2.856262   
 276  	12.3596   	-4.078186   
 277  	12.4045   	-3.862549   
 278  	12.4494   	-3.646911   
 279  	12.4944   	-3.503174   
 280  	12.5393   	-4.150024   
 281  	12.5843   	-4.006287   
 282  	12.6292   	-4.006287   
 283  	12.6742   	-3.143799   
 284  	12.7191   	-2.640686   
 285  	12.7640   	-3.071899   
 286  	12.8090   	-3.934387   
 287  	12.8539   	-4.365662   
 288  	12.8989   	-3.862549   
 289  	12.9438   	-3.790649   
 290  	12.9888   	-3.718811   
 291  	13.0337   	-4.150024   
 292  	13.0787   	-3.071899   
 293  	13.1236   	-3.071899   
 294  	13.1685   	-3.000061   
 295  	13.2135   	-3.071899   
 296  	13.2584   	-2.784424   
 297  	13.3034   	-2.712524   
 298  	13.3483   	-2.856262   
 299  	13.3933   	-2.640686   
 300  	13.4382   	-1.562561   
 301  	13.4831   	-1.059387   
 302  	13.5281   	-1.993774   
 303  	13.5730   	-2.928161   
 304  	13.6180   	-2.425049   
 305  	13.6629   	-3.000061   
 306  	13.7079   	-2.568787   
 307  	13.7528   	-2.856262   
 308  	13.7978   	-3.071899   
 309  	13.8427   	-3.431274   
 310  	13.8876   	-3.359436   
 311  	13.9326   	-2.568787   
 312  	13.9775   	-2.928161   
 313  	14.0225   	-2.281311   
 314  	14.0674   	-3.646911   
 315  	14.1124   	-3.071899   
 316  	14.1573   	-3.790649   
 317  	14.2022   	-2.856262   
 318  	14.2472   	-3.071899   
 319  	14.2921   	-3.862549   
 320  	14.3371   	-2.712524   
 321  	14.3820   	-2.137512   
 322  	14.4270   	-2.568787   
 323  	14.4719   	-2.425049   
 324  	14.5169   	-3.215637   
 325  	14.5618   	-2.784424   
 326  	14.6067   	-3.646911   
 327  	14.6517   	-2.928161   
 328  	14.6966   	-2.712524   
 329  	14.7416   	-2.928161   
 330  	14.7865   	-3.503174   
 331  	14.8315   	-4.078186   
 332  	14.8764   	-3.215637   
 333  	14.9213   	-3.503174   
 334  	14.9663   	-3.646911   
 335  	15.0112   	-4.078186   
 336  	15.0562   	-3.862549   
 337  	15.1011   	-4.437561   
 338  	15.1461   	-3.718811   
 339  	15.1910   	-3.934387   
 340  	15.2360   	-2.712524   
 341  	15.2809   	-3.718811   
 342  	15.3258   	-3.431274   
 343  	15.3708   	-1.993774   
 344  	15.4157   	-3.503174   
 345  	15.4607   	-3.071899   
 346  	15.5056   	-3.287536   
 347  	15.5506   	-3.359436   
 348  	15.5955   	-3.575012   
 349  	15.6404   	-3.646911   
 350  	15.6854   	-3.575012   
 351  	15.7303   	-2.928161   
 352  	15.7753   	-1.418762   
 353  	15.8202   	-2.640686   
 354  	15.8652   	-3.503174   
 355  	15.9101   	-3.790649   
 356  	15.9551   	-4.221923   
 357  	16.0000   	-2.928161   
 358  	16.0449   	-1.778137   
 359  	16.0899   	-2.425049   
 360  	16.1348   	-2.856262   
 361  	16.1798   	-2.856262   
 362  	16.2247   	-2.928161   
 363  	16.2697   	-3.071899   
 364  	16.3146   	-2.856262   
 365  	16.3596   	-3.000061   
 366  	16.4045   	-3.143799   
 367  	16.4494   	-2.425049   
 368  	16.4944   	-3.287536   
 369  	16.5393   	-3.646911   
 370  	16.5843   	-3.575012   
 371  	16.6292   	-3.143799   
 372  	16.6742   	-2.784424   
 373  	16.7191   	-3.143799   
 374  	16.7640   	-3.503174   
 375  	16.8090   	-3.215637   
 376  	16.8539   	-4.078186   
 377  	16.8989   	-3.862549   
 378  	16.9438   	-3.431274   
 379  	16.9888   	-3.215637   
 380  	17.0337   	-2.353149   
 381  	17.0787   	-4.293762   
 382  	17.1236   	-3.862549   
 383  	17.1685   	-4.006287   
 384  	17.2135   	-3.143799   
 385  	17.2584   	-3.503174   
 386  	17.3034   	-2.928161   
 387  	17.3483   	-2.856262   
 388  	17.3933   	-2.856262   
 389  	17.4382   	-2.640686   
 390  	17.4831   	-3.287536   
 391  	17.5281   	-3.000061   
 392  	17.5730   	-2.712524   
 393  	17.6180   	-1.993774   
 394  	17.6629   	-2.425049   
 395  	17.7079   	-2.353149   
 396  	17.7528   	-2.856262   
 397  	17.7978   	-2.065674   
 398  	17.8427   	-2.425049   
 399  	17.8876   	-2.640686   
 400  	17.9326   	-2.784424   
 401  	17.9775   	-1.993774   
 402  	18.0225   	-2.137512   
 403  	18.0674   	-2.425049   
 404  	18.1124   	-2.712524   
 405  	18.1573   	-2.568787   
 406  	18.2022   	-1.778137   
 407  	18.2472   	-1.059387   
 408  	18.2921   	-2.065674   
 409  	18.3371   	-2.137512   
 410  	18.3820   	-3.862549   
 411  	18.4270   	-3.862549   
 412  	18.4719   	-3.071899   
 413  	18.5169   	-3.503174   
 414  	18.5618   	-2.496887   
 415  	18.6067   	-2.568787   
 416  	18.6517   	-2.281311   
 417  	18.6966   	-2.856262   
 418  	18.7416   	-3.503174   
 419  	18.7865   	-3.646911   
 420  	18.8315   	-3.000061   
 421  	18.8764   	-3.000061   
 422  	18.9213   	-3.790649   
 423  	18.9663   	-3.503174   
 424  	19.0112   	-3.359436   
 425  	19.0562   	-3.718811   
 426  	19.1011   	-4.437561   
 427  	19.1461   	-3.646911   
 428  	19.1910   	-2.856262   
 429  	19.2360   	-3.071899   
 430  	19.2809   	-1.706299   
 431  	19.3258   	-2.137512   
 432  	19.3708   	-2.065674   
 433  	19.4157   	-1.634399   
 434  	19.4607   	-2.928161   
 435  	19.5056   	-3.287536   
 436  	19.5506   	-3.575012   
 437  	19.5955   	-3.071899   
 438  	19.6404   	-3.431274   
 439  	19.6854   	-3.359436   
 440  	19.7303   	-3.000061   
 441  	19.7753   	-2.856262   
 442  	19.8202   	-2.353149   
 443  	19.8652   	-2.928161   
 444  	19.9101   	-2.856262   
 445  	19.9551   	-1.921936   
 446  	20.0000   	-1.706299   
 447  	20.0449   	-2.425049   
 448  	20.0899   	-2.353149   
 449  	20.1348   	-2.568787   
 450  	20.1798   	-2.281311   
 451  	20.2247   	-1.921936   
 452  	20.2697   	-2.137512   
 453  	20.3146   	-1.778137   
 454  	20.3596   	-2.425049   
 455  	20.4045   	-3.143799   
 456  	20.4494   	-2.568787   
 457  	20.4944   	-3.359436   
 458  	20.5393   	-2.137512   
 459  	20.5843   	-2.209412   
 460  	20.6292   	-2.712524   
 461  	20.6742   	-2.928161   
 462  	20.7191   	-2.856262   
 463  	20.7640   	-2.209412   
 464  	20.8090   	-1.634399   
 465  	20.8539   	-1.921936   
 466  	20.8989   	-1.850037   
 467  	20.9438   	-2.353149   
 468  	20.9888   	-1.706299   
 469  	21.0337   	-2.568787   
 470  	21.0787   	-3.287536   
 471  	21.1236   	-2.640686   
 472  	21.1685   	-0.843811   
 473  	21.2135   	-2.353149   
 474  	21.2584   	-2.209412   
 475  	21.3034   	-2.425049   
 476  	21.3483   	-2.209412   
 477  	21.3933   	-2.856262   
 478  	21.4382   	-2.137512   
 479  	21.4831   	-3.000061   
 480  	21.5281   	-2.425049   
 481  	21.5730   	-2.209412   
 482  	21.6180   	-2.137512   
 483  	21.6629   	-2.065674   
 484  	21.7079   	-2.425049   
 485  	21.7528   	-2.353149   
 486  	21.7978   	-3.143799   
 487  	21.8427   	-2.640686   
 488  	21.8876   	-2.856262   
 489  	21.9326   	-2.065674   
 490  	21.9775   	-3.071899   
 491  	22.0225   	-3.431274   
 492  	22.0674   	-3.359436   
 493  	22.1124   	-3.790649   
 494  	22.1573   	-1.993774   
 495  	22.2022   	-1.993774   
 496  	22.2472   	-1.993774   
 497  	22.2921   	-2.137512   
 498  	22.3371   	-2.496887   
 499  	22.3820   	-2.353149   
 500  	22.4270   	-1.778137   
 501  	22.4719   	-2.209412   
 502  	22.5169   	-2.425049   
 503  	22.5618   	-2.568787   
 504  	22.6067   	-2.568787   
 505  	22.6517   	-1.850037   
 506  	22.6966   	-2.425049   
 507  	22.7416   	-2.065674   
 508  	22.7865   	-1.993774   
 509  	22.8315   	-2.137512   
 510  	22.8764   	-2.137512   
 511  	22.9213   	-1.562561   
 512  	22.9663   	-1.275024   
 513  	23.0112   	-1.993774   
 514  	23.0562   	-2.712524   
 515  	23.1011   	-1.993774   
 516  	23.1461   	-2.568787   
 517  	23.1910   	-2.137512   
 518  	23.2360   	-2.425049   
 519  	23.2809   	-3.071899   
 520  	23.3258   	-2.425049   
 521  	23.3708   	-2.353149   
 522  	23.4157   	-1.418762   
 523  	23.4607   	-2.568787   
 524  	23.5056   	-2.065674   
 525  	23.5506   	-0.843811   
 526  	23.5955   	-1.850037   
 527  	23.6404   	-1.562561   
 528  	23.6854   	-1.562561   
 529  	23.7303   	-1.921936   
 530  	23.7753   	-0.843811   
 531  	23.8202   	-0.915649   
 532  	23.8652   	-1.706299   
 533  	23.9101   	-1.850037   
 534  	23.9551   	-1.490662   
 535  	24.0000   	-1.418762   
 536  	24.0449   	-2.425049   
 537  	24.0899   	-1.850037   
 538  	24.1348   	-1.203186   
 539  	24.1798   	-0.556274   
 540  	24.2247   	-0.340637   
 541  	24.2697   	-1.203186   
 542  	24.3146   	-1.203186   
 543  	24.3596   	-1.059387   
 544  	24.4045   	-2.137512   
 545  	24.4494   	-1.634399   
 546  	24.4944   	-1.778137   
 547  	24.5393   	-2.065674   
 548  	24.5843   	-1.850037   
 549  	24.6292   	-1.778137   
 550  	24.6742   	-1.059387   
 551  	24.7191   	-1.418762   
 552  	24.7640   	-1.059387   
 553  	24.8090   	-0.125061   
 554  	24.8539   	-0.700012   
 555  	24.8989   	0.378113    
 556  	24.9438   	1.312439    
 557  	24.9888   	1.959350    
 558  	25.0337   	3.181213    
 559  	25.0787   	3.899963    
 560  	25.1236   	5.121826    
 561  	25.1685   	6.559326    
 562  	25.2135   	7.421813    
 563  	25.2584   	8.859314    
 564  	25.3034   	10.728087   
 565  	25.3483   	11.374939   
 566  	25.3933   	11.231200   
 567  	25.4382   	13.531189   
 568  	25.4831   	18.778076   
 569  	25.5281   	44.221863   
 570  	25.5730   	65.424988   
 571  	25.6180   	82.387512   
 572  	25.6629   	94.534363   
 573  	25.7079   	102.656189  
 574  	25.7528   	109.843681  
 575  	25.7978   	114.803040  
 576  	25.8427   	117.031189  
 577  	25.8876   	119.834290  
 578  	25.9326   	121.343681  
 579  	25.9775   	122.062439  
 580  	26.0225   	124.290588  
 581  	26.0674   	125.081230  
 582  	26.1124   	125.081230  
 583  	26.1573   	126.374931  
 584  	26.2022   	128.099915  
 585  	26.2472   	128.387512  
 586  	26.2921   	128.531189  
 587  	26.3371   	128.387512  
 588  	26.3820   	128.890564  
 589  	26.4270   	127.740532  
 590  	26.4719   	128.171799  
 591  	26.5169   	128.818665  
 592  	26.5618   	129.537399  
 593  	26.6067   	130.615540  
 594  	26.6517   	130.184372  
 595  	26.6966   	130.974899  
 596  	26.7416   	130.903137  
 597  	26.7865   	131.909363  
 598  	26.8315   	132.987473  
 599  	26.8764   	133.131165  
 600  	26.9213   	132.053040  
 601  	26.9663   	133.274948  
 602  	27.0112   	132.987473  
 603  	27.0562   	133.706238  
 604  	27.1011   	132.843689  
 605  	27.1461   	132.771790  
 606  	27.1910   	132.628113  
 607  	27.2360   	134.353073  
 608  	27.2809   	133.346863  
 609  	27.3258   	133.418762  
 610  	27.3708   	134.712463  
 611  	27.4157   	135.143738  
 612  	27.4607   	134.784363  
 613  	27.5056   	135.431213  
 614  	27.5506   	135.646790  
 615  	27.5955   	135.287415  
 616  	27.6404   	134.856262  
 617  	27.6854   	135.143738  
 618  	27.7303   	135.862488  
 619  	27.7753   	135.718689  
 620  	27.8202   	135.287415  
 621  	27.8652   	135.862488  
 622  	27.9101   	135.359314  
 623  	27.9551   	135.215637  
 624  	28.0000   	135.503098  
 625  	28.0449   	135.574997  
 626  	28.0899   	135.215637  
 627  	28.1348   	134.281189  
 628  	28.1798   	134.496887  
 629  	28.2247   	133.778137  
 630  	28.2697   	134.281189  
 631  	28.3146   	134.209290  
 632  	28.3596   	133.849915  
 633  	28.4045   	133.634338  
 634  	28.4494   	133.203049  
 635  	28.4944   	133.346863  
 636  	28.5393   	132.412415  
 637  	28.5843   	133.562439  
 638  	28.6292   	133.274948  
 639  	28.6742   	133.634338  
 640  	28.7191   	134.065613  
 641  	28.7640   	134.137497  
 642  	28.8090   	135.574997  
 643  	28.8539   	136.365540  
 644  	28.8989   	135.934387  
 645  	28.9438   	136.078049  
 646  	28.9888   	136.006149  
 647  	29.0337   	135.790573  
 648  	29.0787   	136.078049  
 649  	29.1236   	135.574997  
 650  	29.1685   	135.718689  
 651  	29.2135   	135.431213  
 652  	29.2584   	136.581238  
 653  	29.3034   	136.006149  
 654  	29.3483   	135.934387  
 655  	29.3933   	136.509338  
 656  	29.4382   	136.796814  
 657  	29.4831   	136.940598  
 658  	29.5281   	135.718689  
 659  	29.5730   	134.712463  
 660  	29.6180   	135.718689  
 661  	29.6629   	135.790573  
 662  	29.7079   	135.574997  
 663  	29.7528   	136.006149  
 664  	29.7978   	136.293762  
 665  	29.8427   	135.862488  
 666  	29.8876   	136.293762  
 667  	29.9326   	135.934387  
 668  	29.9775   	136.724915  
 669  	30.0225   	135.862488  
 670  	30.0674   	135.574997  
 671  	30.1124   	136.581238  
 672  	30.1573   	137.228073  
 673  	30.2022   	135.862488  
 674  	30.2472   	136.653122  
 675  	30.2921   	136.653122  
 676  	30.3371   	136.078049  
 677  	30.3820   	136.868698  
 678  	30.4270   	136.293762  
 679  	30.4719   	135.862488  
 680  	30.5169   	136.581238  
 681  	30.5618   	136.149963  
 682  	30.6067   	136.293762  
 683  	30.6517   	136.724915  
 684  	30.6966   	135.646790  
 685  	30.7416   	134.928024  
 686  	30.7865   	135.934387  
 687  	30.8315   	135.431213  
 688  	30.8764   	135.071838  
 689  	30.9213   	135.359314  
 690  	30.9663   	135.143738  
 691  	31.0112   	135.431213  
 692  	31.0562   	135.359314  
 693  	31.1011   	136.006149  
 694  	31.1461   	135.143738  
 695  	31.1910   	134.928024  
 696  	31.2360   	135.646790  
 697  	31.2809   	136.149963  
 698  	31.3258   	135.862488  
 699  	31.3708   	135.431213  
 700  	31.4157   	135.934387  
 701  	31.4607   	136.509338  
 702  	31.5056   	136.581238  
 703  	31.5506   	136.078049  
 704  	31.5955   	136.149963  
 705  	31.6404   	136.221863  
 706  	31.6854   	136.149963  
 707  	31.7303   	136.365540  
 708  	31.7753   	135.215637  
 709  	31.8202   	133.849915  
 710  	31.8652   	134.065613  
 711  	31.9101   	135.071838  
 712  	31.9551   	134.424973  
 713  	32.0000   	133.849915  
 714  	32.0449   	133.778137  
 715  	32.0899   	132.556213  
 716  	32.1348   	132.268738  
 717  	32.1798   	132.843689  
 718  	32.2247   	132.628113  
 719  	32.2697   	132.628113  
 720  	32.3146   	133.131165  
 721  	32.3596   	132.124924  
 722  	32.4045   	131.981262  
 723  	32.4494   	131.118713  
 724  	32.4944   	130.615540  
 725  	32.5393   	130.256165  
 726  	32.5843   	129.681213  
 727  	32.6292   	129.393738  
 728  	32.6742   	130.759338  
 729  	32.7191   	131.262512  
 730  	32.7640   	132.053040  
 731  	32.8090   	131.549973  
 732  	32.8539   	130.759338  
 733  	32.8989   	131.262512  
 734  	32.9438   	131.118713  
 735  	32.9888   	131.765564  
 736  	33.0337   	131.693665  
 737  	33.0787   	131.765564  
 738  	33.1236   	131.693665  
 739  	33.1685   	130.759338  
 740  	33.2135   	130.399963  
 741  	33.2584   	130.256165  
 742  	33.3034   	130.759338  
 743  	33.3483   	130.471848  
 744  	33.3933   	131.046814  
 745  	33.4382   	130.112488  
 746  	33.4831   	130.615540  
 747  	33.5281   	130.256165  
 748  	33.5730   	130.687424  
 749  	33.6180   	131.262512  
 750  	33.6629   	130.974899  
 751  	33.7079   	131.478088  
 752  	33.7528   	131.406189  
 753  	33.7978   	130.256165  
 754  	33.8427   	131.478088  
 755  	33.8876   	131.837448  
 756  	33.9326   	131.621872  
 757  	33.9775   	131.046814  
 758  	34.0225   	131.478088  
 759  	34.0674   	131.478088  
 760  	34.1124   	132.124924  
 761  	34.1573   	130.903137  
 762  	34.2022   	131.046814  
 763  	34.2472   	130.759338  
 764  	34.2921   	130.759338  
 765  	34.3371   	131.046814  
 766  	34.3820   	132.484314  
 767  	34.4270   	132.484314  
 768  	34.4719   	133.131165  
 769  	34.5169   	131.765564  
 770  	34.5618   	131.334290  
 771  	34.6067   	132.340637  
 772  	34.6517   	132.053040  
 773  	34.6966   	132.053040  
 774  	34.7416   	132.340637  
 775  	34.7865   	132.628113  
 776  	34.8315   	131.909363  
 777  	34.8764   	131.549973  
 778  	34.9213   	131.621872  
 779  	34.9663   	132.196838  
 780  	35.0112   	131.765564  
 781  	35.0562   	132.196838  
 782  	35.1011   	132.196838  
 783  	35.1461   	131.334290  
 784  	35.1910   	131.693665  
 785  	35.2360   	131.765564  
 786  	35.2809   	131.262512  
 787  	35.3258   	130.256165  
 788  	35.3708   	129.681213  
 789  	35.4157   	129.465637  
 790  	35.4607   	129.681213  
 791  	35.5056   	130.471848  
 792  	35.5506   	130.399963  
 793  	35.5955   	129.681213  
 794  	35.6404   	129.825012  
 795  	35.6854   	130.328064  
 796  	35.7303   	130.543762  
 797  	35.7753   	130.687424  
 798  	35.8202   	130.184372  
 799  	35.8652   	130.543762  
 800  	35.9101   	130.471848  
 801  	35.9551   	130.256165  
 802  	36.0000   	129.609299  
 803  	36.0449   	128.890564  
 804  	36.0899   	128.459274  
 805  	36.1348   	128.603088  
 806  	36.1798   	126.734306  
 807  	36.2247   	126.590637  
 808  	36.2697   	125.943665  
 809  	36.3146   	124.865540  
 810  	36.3596   	124.506157  
 811  	36.4045   	123.787415  
 812  	36.4494   	122.709282  
 813  	36.4944   	122.421806  
 814  	36.5393   	122.349915  
 815  	36.5843   	121.056206  
 816  	36.6292   	120.912415  
 817  	36.6742   	119.906181  
 818  	36.7191   	118.325005  
 819  	36.7640   	117.678032  
 820  	36.8090   	117.174980  
 821  	36.8539   	115.953056  
 822  	36.8989   	114.731255  
 823  	36.9438   	113.868706  
 824  	36.9888   	112.934380  
 825  	37.0337   	113.437431  
 826  	37.0787   	112.359306  
 827  	37.1236   	111.856255  
 828  	37.1685   	111.353088  
 829  	37.2135   	110.921806  
 830  	37.2584   	110.274963  
 831  	37.3034   	109.412415  
 832  	37.3483   	109.340630  
 833  	37.3933   	108.406181  
 834  	37.4382   	106.537415  
 835  	37.4831   	107.112480  
 836  	37.5281   	106.321838  
 837  	37.5730   	104.668762  
 838  	37.6180   	104.381165  
 839  	37.6629   	102.799980  
 840  	37.7079   	101.865540  
 841  	37.7528   	100.715637  
 842  	37.7978   	99.924988   
 843  	37.8427   	98.128105   
 844  	37.8876   	96.978081   
 845  	37.9326   	96.331230   
 846  	37.9775   	94.821838   
 847  	38.0225   	94.462463   
 848  	38.0674   	92.737480   
 849  	38.1124   	91.731262   
 850  	38.1573   	90.221855   
 851  	38.2022   	89.790588   
 852  	38.2472   	88.353088   
 853  	38.2921   	87.418762   
 854  	38.3371   	86.915581   
 855  	38.3820   	85.118713   
 856  	38.4270   	83.537415   
 857  	38.4719   	82.459290   
 858  	38.5169   	81.381157   
 859  	38.5618   	80.518738   
 860  	38.6067   	78.865532   
 861  	38.6517   	77.715637   
 862  	38.6966   	76.062431   
 863  	38.7416   	74.696838   
 864  	38.7865   	73.474915   
 865  	38.8315   	71.174980   
 866  	38.8764   	70.528137   
 867  	38.9213   	68.946838   
 868  	38.9663   	67.149963   
 869  	39.0112   	65.640556   
 870  	39.0562   	64.131165   
 871  	39.1011   	62.046814   
 872  	39.1461   	61.471859   
 873  	39.1910   	59.459290   
 874  	39.2360   	57.950008   
 875  	39.2809   	55.865536   
 876  	39.3258   	54.068661   
 877  	39.3708   	52.200008   
 878  	39.4157   	50.618710   
 879  	39.4607   	50.403137   
 880  	39.5056   	48.462460   
 881  	39.5506   	47.384335   
 882  	39.5955   	47.168762   
 883  	39.6404   	44.940613   
 884  	39.6854   	44.293758   
 885  	39.7303   	42.424984   
 886  	39.7753   	41.131165   
 887  	39.8202   	39.406189   
 888  	39.8652   	37.393738   
 889  	39.9101   	36.243713   
 890  	39.9551   	35.453064   
 891  	40.0000   	34.878113   
 892  	40.0449   	34.949947   
 893  	40.0899   	33.656189   
 894  	40.1348   	32.865597   
 895  	40.1798   	31.859312   
 896  	40.2247   	30.996824   
 897  	40.2697   	30.062439   
 898  	40.3146   	29.631224   
 899  	40.3596   	28.553099   
 900  	40.4045   	28.840574   
 901  	40.4494   	28.337461   
 902  	40.4944   	27.115601   
 903  	40.5393   	25.749939   
 904  	40.5843   	25.246824   
 905  	40.6292   	23.809326   
 906  	40.6742   	23.090576   
 907  	40.7191   	22.874939   
 908  	40.7640   	21.509336   
 909  	40.8090   	20.862486   
 910  	40.8539   	19.496824   
 911  	40.8989   	18.059324   
 912  	40.9438   	16.262449   
 913  	40.9888   	15.759338   
 914  	41.0337   	15.328063   
 915  	41.0787   	14.106200   
 916  	41.1236   	12.596862   
 917  	41.1685   	11.878113   
 918  	41.2135   	10.728087   
 919  	41.2584   	9.434325    
 920  	41.3034   	8.931213    
 921  	41.3483   	8.428101    
 922  	41.3933   	8.140564    
 923  	41.4382   	7.565612    
 924  	41.4831   	6.918701    
 925  	41.5281   	7.062439    
 926  	41.5730   	7.134338    
 927  	41.6180   	6.559326    
 928  	41.6629   	6.774963    
 929  	41.7079   	6.415588    
 930  	41.7528   	6.271850    
 931  	41.7978   	5.696838    
 932  	41.8427   	4.906189    
 933  	41.8876   	4.762451    
 934  	41.9326   	5.049988    
 935  	41.9775   	4.690613    
 936  	42.0225   	4.259338    
 937  	42.0674   	4.187439    
 938  	42.1124   	4.474976    
 939  	42.1573   	2.821838    
 940  	42.2022   	1.959350    
 941  	42.2472   	1.887451    
 942  	42.2921   	1.384338    
 943  	42.3371   	0.521851    
 944  	42.3820   	-0.628174   
 945  	42.4270   	-1.131287   
 946  	42.4719   	-1.059387   
 947  	42.5169   	-1.418762   
 948  	42.5618   	-2.640686   
 949  	42.6067   	-1.921936   
 950  	42.6517   	-1.778137   
 951  	42.6966   	-1.490662   
 952  	42.7416   	-1.490662   
 953  	42.7865   	-1.850037   
 954  	42.8315   	-2.928161   
 955  	42.8764   	-3.790649   
 956  	42.9213   	-4.437561   
 957  	42.9663   	-5.012512   
 958  	43.0112   	-4.365662   
 959  	43.0562   	-3.790649   
 960  	43.1011   	-5.156311   
 961  	43.1461   	-6.450012   
 962  	43.1910   	-8.031310   
 963  	43.2360   	-8.893799   
 964  	43.2809   	-11.193787  
 965  	43.3258   	-11.625060  
 966  	43.3708   	-12.559387  
 967  	43.4157   	-12.775024  
 968  	43.4607   	-14.500060  
 969  	43.5056   	-15.290648  
 970  	43.5506   	-20.178162  
 971  	43.5955   	-36.278137  
 972  	43.6404   	-54.606262  
 973  	43.6854   	-70.346916  
 974  	43.7303   	-82.206299  
 975  	43.7753   	-92.843803  
 976  	43.8202   	-99.312553  
 977  	43.8652   	-105.350037 
 978  	43.9101   	-110.596855 
 979  	43.9551   	-113.328186 
 980  	44.0000   	-116.418755 
 981  	44.0449   	-118.934387 
 982  	44.0899   	-119.437561 
 983  	44.1348   	-121.593803 
 984  	44.1798   	-123.318779 
 985  	44.2247   	-123.750061 
 986  	44.2697   	-125.906311 
 987  	44.3146   	-126.409363 
 988  	44.3596   	-127.559387 
 989  	44.4045   	-128.565613 
 990  	44.4494   	-129.212509 
 991  	44.4944   	-129.428162 
 992  	44.5393   	-130.506287 
 993  	44.5843   	-130.146912 
 994  	44.6292   	-130.937546 
 995  	44.6742   	-130.362488 
 996  	44.7191   	-131.368774 
 997  	44.7640   	-131.368774 
 998  	44.8090   	-132.303146 
 999  	44.8539   	-132.806274 
 1000 	44.8989   	-133.237488 
 1001 	44.9438   	-133.453171 
 1002 	44.9888   	-133.309387 
 1003 	45.0337   	-133.453171 
 1004 	45.0787   	-133.381287 
 1005 	45.1236   	-134.603149 
 1006 	45.1685   	-135.034363 
 1007 	45.2135   	-134.962524 
 1008 	45.2584   	-135.178162 
 1009 	45.3034   	-135.609436 
 1010 	45.3483   	-135.465637 
 1011 	45.3933   	-135.465637 
 1012 	45.4382   	-135.393723 
 1013 	45.4831   	-135.465637 
 1014 	45.5281   	-135.753113 
 1015 	45.5730   	-135.825012 
 1016 	45.6180   	-135.753113 
 1017 	45.6629   	-135.896912 
 1018 	45.7079   	-135.753113 
 1019 	45.7528   	-135.393723 
 1020 	45.7978   	-135.537537 
 1021 	45.8427   	-135.537537 
 1022 	45.8876   	-136.184387 
 1023 	45.9326   	-136.903137 
 1024 	45.9775   	-135.753113 
 1025 	46.0225   	-135.393723 
 1026 	46.0674   	-136.256271 
 1027 	46.1124   	-135.681259 
 1028 	46.1573   	-135.178162 
 1029 	46.2022   	-135.465637 
 1030 	46.2472   	-133.596863 
 1031 	46.2921   	-133.668747 
 1032 	46.3371   	-132.734436 
 1033 	46.3820   	-128.421921 
 1034 	46.4270   	-116.921936 
 1035 	46.4719   	-108.153137 
 1036 	46.5169   	-103.193787 
 1037 	46.5618   	-102.618774 
 1038 	46.6067   	-102.906311 
 1039 	46.6517   	-104.918755 
 1040 	46.6966   	-108.799988 
 1041 	46.7416   	-109.231255 
 1042 	46.7865   	-112.968811 
 1043 	46.8315   	-114.046928 
 1044 	46.8764   	-117.568779 
 1045 	46.9213   	-119.940613 
 1046 	46.9663   	-122.456230 
 1047 	47.0112   	-124.900017 
 1048 	47.0562   	-125.906311 
 1049 	47.1011   	-126.768738 
 1050 	47.1461   	-128.493774 
 1051 	47.1910   	-128.493774 
 1052 	47.2360   	-129.859436 
 1053 	47.2809   	-130.074997 
 1054 	47.3258   	-131.296936 
 1055 	47.3708   	-131.656311 
 1056 	47.4157   	-131.728134 
 1057 	47.4607   	-132.518738 
 1058 	47.5056   	-133.093811 
 1059 	47.5506   	-133.884399 
 1060 	47.5955   	-134.243759 
 1061 	47.6404   	-134.962524 
 1062 	47.6854   	-134.890671 
 1063 	47.7303   	-135.034363 
 1064 	47.7753   	-134.603149 
 1065 	47.8202   	-134.746887 
 1066 	47.8652   	-135.393723 
 1067 	47.9101   	-135.609436 
 1068 	47.9551   	-135.968796 
 1069 	48.0000   	-136.184387 
 1070 	48.0449   	-135.753113 
 1071 	48.0899   	-135.034363 
 1072 	48.1348   	-135.681259 
 1073 	48.1798   	-135.178162 
 1074 	48.2247   	-135.609436 
 1075 	48.2697   	-135.681259 
 1076 	48.3146   	-135.393723 
 1077 	48.3596   	-136.328186 
 1078 	48.4045   	-136.040649 
 1079 	48.4494   	-135.178162 
 1080 	48.4944   	-135.393723 
 1081 	48.5393   	-135.968796 
 1082 	48.5843   	-135.753113 
 1083 	48.6292   	-136.400024 
 1084 	48.6742   	-137.046936 
 1085 	48.7191   	-137.406296 
 1086 	48.7640   	-136.615662 
 1087 	48.8090   	-136.471848 
 1088 	48.8539   	-135.825012 
 1089 	48.8989   	-137.046936 
 1090 	48.9438   	-136.471848 
 1091 	48.9888   	-136.112488 
 1092 	49.0337   	-135.537537 
 1093 	49.0787   	-135.968796 
 1094 	49.1236   	-136.687561 
 1095 	49.1685   	-136.256271 
 1096 	49.2135   	-135.753113 
 1097 	49.2584   	-135.465637 
 1098 	49.3034   	-134.962524 
 1099 	49.3483   	-135.537537 
 1100 	49.3933   	-134.962524 
 1101 	49.4382   	-134.962524 
 1102 	49.4831   	-134.890671 
 1103 	49.5281   	-135.537537 
 1104 	49.5730   	-135.537537 
 1105 	49.6180   	-136.256271 
 1106 	49.6629   	-136.256271 
 1107 	49.7079   	-136.400024 
 1108 	49.7528   	-136.759399 
 1109 	49.7978   	-137.765686 
 1110 	49.8427   	-137.837524 
 1111 	49.8876   	-136.615662 
 1112 	49.9326   	-136.328186 
 1113 	49.9775   	-136.615662 
 1114 	50.0225   	-136.471848 
 1115 	50.0674   	-136.328186 
 1116 	50.1124   	-135.896912 
 1117 	50.1573   	-136.112488 
 1118 	50.2022   	-136.328186 
 1119 	50.2472   	-135.968796 
 1120 	50.2921   	-135.465637 
 1121 	50.3371   	-135.321899 
 1122 	50.3820   	-134.890671 
 1123 	50.4270   	-135.106247 
 1124 	50.4719   	-135.106247 
 1125 	50.5169   	-135.393723 
 1126 	50.5618   	-135.681259 
 1127 	50.6067   	-135.106247 
 1128 	50.6517   	-133.884399 
 1129 	50.6966   	-133.812561 
 1130 	50.7416   	-133.956223 
 1131 	50.7865   	-133.884399 
 1132 	50.8315   	-133.884399 
 1133 	50.8764   	-134.243759 
 1134 	50.9213   	-134.315613 
 1135 	50.9663   	-133.812561 
 1136 	51.0112   	-133.525024 
 1137 	51.0562   	-133.165634 
 1138 	51.1011   	-132.015671 
 1139 	51.1461   	-132.662537 
 1140 	51.1910   	-132.303146 
 1141 	51.2360   	-132.806274 
 1142 	51.2809   	-132.950012 
 1143 	51.3258   	-133.309387 
 1144 	51.3708   	-132.662537 
 1145 	51.4157   	-132.662537 
 1146 	51.4607   	-133.668747 
 1147 	51.5056   	-132.159363 
 1148 	51.5506   	-131.943787 
 1149 	51.5955   	-131.799988 
 1150 	51.6404   	-132.662537 
 1151 	51.6854   	-132.590622 
 1152 	51.7303   	-132.662537 
 1153 	51.7753   	-132.734436 
 1154 	51.8202   	-132.303146 
 1155 	51.8652   	-134.243759 
 1156 	51.9101   	-133.812561 
 1157 	51.9551   	-133.237488 
 1158 	52.0000   	-132.662537 
 1159 	52.0449   	-132.446899 
 1160 	52.0899   	-132.446899 
 1161 	52.1348   	-132.734436 
 1162 	52.1798   	-132.446899 
 1163 	52.2247   	-133.668747 
 1164 	52.2697   	-132.734436 
 1165 	52.3146   	-132.231262 
 1166 	52.3596   	-133.165634 
 1167 	52.4045   	-133.525024 
 1168 	52.4494   	-134.100037 
 1169 	52.4944   	-133.309387 
 1170 	52.5393   	-133.956223 
 1171 	52.5843   	-134.315613 
 1172 	52.6292   	-133.884399 
 1173 	52.6742   	-134.315613 
 1174 	52.7191   	-134.674988 
 1175 	52.7640   	-135.250061 
 1176 	52.8090   	-134.890671 
 1177 	52.8539   	-133.812561 
 1178 	52.8989   	-133.381287 
 1179 	52.9438   	-133.812561 
 1180 	52.9888   	-133.812561 
 1181 	53.0337   	-134.028137 
 1182 	53.0787   	-133.884399 
 1183 	53.1236   	-133.453171 
 1184 	53.1685   	-133.812561 
 1185 	53.2135   	-133.093811 
 1186 	53.2584   	-134.459412 
 1187 	53.3034   	-133.165634 
 1188 	53.3483   	-133.884399 
 1189 	53.3933   	-134.315613 
 1190 	53.4382   	-133.596863 
 1191 	53.4831   	-133.453171 
 1192 	53.5281   	-132.950012 
 1193 	53.5730   	-132.806274 
 1194 	53.6180   	-132.806274 
 1195 	53.6629   	-133.021912 
 1196 	53.7079   	-133.812561 
 1197 	53.7528   	-133.309387 
 1198 	53.7978   	-132.662537 
 1199 	53.8427   	-133.596863 
 1200 	53.8876   	-133.309387 
 1201 	53.9326   	-132.087524 
 1202 	53.9775   	-131.656311 
 1203 	54.0225   	-131.225021 
 1204 	54.0674   	-131.799988 
 1205 	54.1124   	-132.518738 
 1206 	54.1573   	-132.590622 
 1207 	54.2022   	-132.015671 
 1208 	54.2472   	-131.153122 
 1209 	54.2921   	-131.728134 
 1210 	54.3371   	-130.937546 
 1211 	54.3820   	-130.721863 
 1212 	54.4270   	-130.074997 
 1213 	54.4719   	-129.212509 
 1214 	54.5169   	-127.559387 
 1215 	54.5618   	-127.056274 
 1216 	54.6067   	-125.331238 
 1217 	54.6517   	-124.756287 
 1218 	54.6966   	-124.540649 
 1219 	54.7416   	-122.959404 
 1220 	54.7865   	-123.246880 
 1221 	54.8315   	-122.600037 
 1222 	54.8764   	-121.737488 
 1223 	54.9213   	-120.875061 
 1224 	54.9663   	-119.293755 
 1225 	55.0112   	-119.581230 
 1226 	55.0562   	-118.575012 
 1227 	55.1011   	-118.575012 
 1228 	55.1461   	-116.993767 
 1229 	55.1910   	-116.634399 
 1230 	55.2360   	-116.059387 
 1231 	55.2809   	-115.700005 
 1232 	55.3258   	-115.412529 
 1233 	55.3708   	-113.328186 
 1234 	55.4157   	-113.903130 
 1235 	55.4607   	-112.537529 
 1236 	55.5056   	-110.956238 
 1237 	55.5506   	-109.878113 
 1238 	55.5955   	-109.950005 
 1239 	55.6405   	-108.656303 
 1240 	55.6854   	-107.578178 
 1241 	55.7303   	-106.787537 
 1242 	55.7753   	-105.637512 
 1243 	55.8202   	-104.631279 
 1244 	55.8652   	-103.625053 
 1245 	55.9101   	-102.403130 
 1246 	55.9551   	-101.109428 
 1247 	56.0000   	-100.246880 
 1248 	56.0449   	-99.384392  
 1249 	56.0899   	-98.378174  
 1250 	56.1348   	-97.803162  
 1251 	56.1798   	-96.653137  
 1252 	56.2247   	-95.790649  
 1253 	56.2697   	-94.568779  
 1254 	56.3146   	-94.209412  
 1255 	56.3596   	-93.490654  
 1256 	56.4045   	-92.340630  
 1257 	56.4494   	-91.406311  
 1258 	56.4944   	-90.184387  
 1259 	56.5393   	-88.890686  
 1260 	56.5843   	-86.806267  
 1261 	56.6292   	-86.734436  
 1262 	56.6742   	-85.512505  
 1263 	56.7191   	-83.140678  
 1264 	56.7640   	-81.990662  
 1265 	56.8090   	-80.984436  
 1266 	56.8539   	-79.690674  
 1267 	56.8989   	-78.971924  
 1268 	56.9438   	-76.743774  
 1269 	56.9888   	-75.162537  
 1270 	57.0337   	-73.437561  
 1271 	57.0787   	-73.365662  
 1272 	57.1236   	-70.490654  
 1273 	57.1685   	-68.046936  
 1274 	57.2135   	-66.681267  
 1275 	57.2584   	-64.884399  
 1276 	57.3034   	-62.800049  
 1277 	57.3483   	-61.146908  
 1278 	57.3933   	-60.428162  
 1279 	57.4382   	-59.421936  
 1280 	57.4831   	-58.415649  
 1281 	57.5281   	-57.050049  
 1282 	57.5730   	-55.109436  
 1283 	57.6180   	-53.815674  
 1284 	57.6629   	-51.731258  
 1285 	57.7079   	-51.012508  
 1286 	57.7528   	-49.646908  
 1287 	57.7978   	-48.712524  
 1288 	57.8427   	-46.268795  
 1289 	57.8876   	-45.478149  
 1290 	57.9326   	-44.184383  
 1291 	57.9775   	-44.184383  
 1292 	58.0225   	-43.968811  
 1293 	58.0674   	-43.178158  
 1294 	58.1124   	-41.884396  
 1295 	58.1573   	-40.806274  
 1296 	58.2022   	-40.375057  
 1297 	58.2472   	-39.728149  
 1298 	58.2921   	-38.578186  
 1299 	58.3371   	-37.715637  
 1300 	58.3820   	-37.140682  
 1301 	58.4270   	-36.350033  
 1302 	58.4719   	-35.703186  
 1303 	58.5169   	-34.553162  
 1304 	58.5618   	-32.971924  
 1305 	58.6067   	-32.828186  
 1306 	58.6517   	-31.893797  
 1307 	58.6966   	-31.678160  
 1308 	58.7416   	-30.096922  
 1309 	58.7865   	-29.881285  
 1310 	58.8315   	-28.228148  
 1311 	58.8764   	-26.287535  
 1312 	58.9213   	-25.928160  
 1313 	58.9663   	-24.203184  
 1314 	59.0112   	-23.771912  
 1315 	59.0562   	-22.837523  
 1316 	59.1011   	-22.262510  
 1317 	59.1461   	-21.759398  
 1318 	59.1910   	-20.178162  
 1319 	59.2360   	-19.890684  
 1320 	59.2809   	-19.243774  
 1321 	59.3258   	-17.518799  
 1322 	59.3708   	-16.943787  
 1323 	59.4157   	-16.009399  
 1324 	59.4607   	-15.290648  
 1325 	59.5056   	-14.428162  
 1326 	59.5506   	-14.356261  
 1327 	59.5955   	-13.709411  
 1328 	59.6405   	-13.278136  
 1329 	59.6854   	-13.062560  
 1330 	59.7303   	-12.415649  
 1331 	59.7753   	-11.625060  
 1332 	59.8202   	-12.631286  
 1333 	59.8652   	-12.200012  
 1334 	59.9101   	-12.056273  
 1335 	59.9551   	-11.337524  
 1336 	60.0000   	-10.546935  
 1337 	60.0449   	-10.475036  
 1338 	60.0899   	-10.331299  
 1339 	60.1348   	-10.187561  
 1340 	60.1798   	-9.540649   
 1341 	60.2247   	-8.750061   
 1342 	60.2697   	-8.750061   
 1343 	60.3146   	-7.312561   
 1344 	60.3596   	-7.312561   
 1345 	60.4045   	-6.953186   
 1346 	60.4494   	-6.665649   
 1347 	60.4944   	-6.809387   
 1348 	60.5393   	-5.443786   
 1349 	60.5843   	-6.234436   
 1350 	60.6292   	-5.084412   
 1351 	60.6742   	-5.443786   
 1352 	60.7191   	-5.443786   
 1353 	60.7640   	-5.300049   
 1354 	60.8090   	-4.437561   
 1355 	60.8539   	-4.437561   
 1356 	60.8989   	-3.862549   
 1357 	60.9438   	-3.575012   
 1358 	60.9888   	-3.934387   
 1359 	61.0337   	-3.862549   
 1360 	61.0787   	-4.437561   
 1361 	61.1236   	-4.150024   
 1362 	61.1685   	-5.300049   
 1363 	61.2135   	-3.646911   
 1364 	61.2584   	-4.581298   
 1365 	61.3034   	-4.365662   
 1366 	61.3483   	-4.509399   
 1367 	61.3933   	-4.293762   
 1368 	61.4382   	-2.640686   
 1369 	61.4831   	-3.503174   
 1370 	61.5281   	-3.503174   
 1371 	61.5730   	-3.575012   
 1372 	61.6180   	-3.790649   
 1373 	61.6629   	-4.437561   
 1374 	61.7079   	-4.509399   
 1375 	61.7528   	-4.725037   
 1376 	61.7978   	-3.646911   
 1377 	61.8427   	-3.000061   
 1378 	61.8876   	-2.640686   
 1379 	61.9326   	-2.640686   
 1380 	61.9775   	-2.281311   
 1381 	62.0225   	-3.503174   
 1382 	62.0674   	-3.503174   
 1383 	62.1124   	-3.646911   
 1384 	62.1573   	-3.215637   
 1385 	62.2022   	-2.640686   
 1386 	62.2472   	-2.209412   
 1387 	62.2921   	-1.993774   
 1388 	62.3371   	-2.425049   
 1389 	62.3820   	-2.209412   
 1390 	62.4270   	-1.993774   
 1391 	62.4719   	-1.921936   
 1392 	62.5169   	-0.915649   
 1393 	62.5618   	-1.634399   
 1394 	62.6067   	-1.418762   
 1395 	62.6517   	-2.928161   
 1396 	62.6966   	-2.496887   
 1397 	62.7416   	-3.071899   
 1398 	62.7865   	-3.071899   
 1399 	62.8315   	-2.856262   
 1400 	62.8764   	-2.353149   
 1401 	62.9213   	-2.568787   
 1402 	62.9663   	-2.568787   
 1403 	63.0112   	-2.928161   
 1404 	63.0562   	-2.928161   
 1405 	63.1011   	-3.215637   
 1406 	63.1461   	-2.496887   
 1407 	63.1910   	-2.425049   
 1408 	63.2360   	-2.496887   
 1409 	63.2809   	-1.706299   
 1410 	63.3258   	-2.568787   
 1411 	63.3708   	-3.646911   
 1412 	63.4157   	-3.646911   
 1413 	63.4607   	-3.359436   
 1414 	63.5056   	-2.640686   
 1415 	63.5506   	-2.568787   
 1416 	63.5955   	-1.921936   
 1417 	63.6405   	-2.209412   
 1418 	63.6854   	-2.353149   
 1419 	63.7303   	-1.778137   
 1420 	63.7753   	-3.359436   
 1421 	63.8202   	-3.503174   
 1422 	63.8652   	-3.287536   
 1423 	63.9101   	-4.293762   
 1424 	63.9551   	-3.646911   
 1425 	64.0000   	-3.503174   
 1426 	64.0449   	-3.431274   
 1427 	64.0899   	-3.934387   
 1428 	64.1348   	-4.006287   
 1429 	64.1798   	-4.796936   
 1430 	64.2247   	-5.515686   
 1431 	64.2697   	-7.168762   
 1432 	64.3146   	-8.318787   
 1433 	64.3596   	-8.390686   
 1434 	64.4045   	-9.037537   
 1435 	64.4494   	-10.259399  
 1436 	64.4944   	-15.506286  
 1437 	64.5393   	-23.125059  
 1438 	64.5843   	-29.018797  
 1439 	64.6292   	-32.109436  
 1440 	64.6742   	-33.834412  
 1441 	64.7191   	-33.546932  
 1442 	64.7640   	-32.756283  
 1443 	64.8090   	-30.671934  
 1444 	64.8539   	-28.875061  
 1445 	64.8989   	-26.575012  
 1446 	64.9438   	-25.425049  
 1447 	64.9888   	-23.484434  
 1448 	65.0337   	-21.543760  
 1449 	65.0787   	-19.746885  
 1450 	65.1236   	-18.381287  
 1451 	65.1685   	-16.871885  
 1452 	65.2135   	-15.506286  
 1453 	65.2584   	-14.931273  
 1454 	65.3034   	-14.787537  
 1455 	65.3483   	-14.212524  
 1456 	65.3933   	-11.553162  
 1457 	65.4382   	-11.696898  
 1458 	65.4831   	-11.050048  
 1459 	65.5281   	-10.546935  
 1460 	65.5730   	-10.618774  
 1461 	65.6180   	-10.115662  
 1462 	65.6629   	-8.821899   
 1463 	65.7079   	-9.540649   
 1464 	65.7528   	-9.684386   
 1465 	65.7978   	-10.187561  
 1466 	65.8427   	-9.828185   
 1467 	65.8876   	-8.390686   
 1468 	65.9326   	-9.612549   
 1469 	65.9775   	-8.750061   
 1470 	66.0225   	-9.468811   
 1471 	66.0674   	-9.684386   
 1472 	66.1124   	-7.959411   
 1473 	66.1573   	-8.534423   
 1474 	66.2022   	-7.959411   
 1475 	66.2472   	-9.109436   
 1476 	66.2921   	-8.462523   
 1477 	66.3371   	-9.037537   
 1478 	66.3820   	-10.115662  
 1479 	66.4270   	-9.181273   
 1480 	66.4719   	-8.606262   
 1481 	66.5169   	-8.750061   
 1482 	66.5618   	-6.665649   
 1483 	66.6067   	-6.953186   
 1484 	66.6517   	-7.312561   
 1485 	66.6966   	-7.096924   
 1486 	66.7416   	-7.456298   
 1487 	66.7865   	-7.959411   
 1488 	66.8315   	-7.528137   
 1489 	66.8764   	-7.456298   
 1490 	66.9213   	-7.456298   
 1491 	66.9663   	-7.096924   
 1492 	67.0112   	-6.450012   
 1493 	67.0562   	-6.521911   
 1494 	67.1011   	-5.731262   
 1495 	67.1461   	-6.881287   
 1496 	67.1910   	-5.515686   
 1497 	67.2360   	-5.084412   
 1498 	67.2809   	-5.587524   
 1499 	67.3258   	-5.659424   
 1500 	67.3708   	-5.371887   
 1501 	67.4157   	-6.162536   
 1502 	67.4607   	-6.090637   
 1503 	67.5056   	-5.875061   
 1504 	67.5506   	-5.875061   
 1505 	67.5955   	-5.371887   
 1506 	67.6405   	-5.587524   
 1507 	67.6854   	-6.737548   
 1508 	67.7303   	-5.875061   
 1509 	67.7753   	-5.443786   
 1510 	67.8202   	-6.162536   
 1511 	67.8652   	-7.168762   
 1512 	67.9101   	-7.671936   
 1513 	67.9551   	-6.881287   
 1514 	68.0000   	-5.946899   
 1515 	68.0449   	-5.443786   
 1516 	68.0899   	-4.581298   
 1517 	68.1348   	-5.300049   
 1518 	68.1798   	-5.731262   
 1519 	68.2247   	-5.803162   
 1520 	68.2697   	-5.731262   
 1521 	68.3146   	-6.090637   
 1522 	68.3596   	-5.515686   
 1523 	68.4045   	-5.946899   
 1524 	68.4494   	-6.378174   
 1525 	68.4944   	-6.162536   
 1526 	68.5393   	-6.090637   
 1527 	68.5843   	-6.090637   
 1528 	68.6292   	-6.234436   
 1529 	68.6742   	-6.090637   
 1530 	68.7191   	-5.228149   
 1531 	68.7640   	-6.378174   
 1532 	68.8090   	-7.096924   
 1533 	68.8539   	-6.378174   
 1534 	68.8989   	-6.450012   
 1535 	68.9438   	-6.018798   
 1536 	68.9888   	-5.515686   
 1537 	69.0337   	-5.371887   
 1538 	69.0787   	-6.018798   
 1539 	69.1236   	-6.809387   
 1540 	69.1685   	-6.521911   
 1541 	69.2135   	-6.306274   
 1542 	69.2584   	-5.587524   
 1543 	69.3034   	-6.378174   
 1544 	69.3483   	-6.234436   
 1545 	69.3933   	-5.803162   
 1546 	69.4382   	-5.803162   
 1547 	69.4831   	-5.587524   
 1548 	69.5281   	-6.018798   
 1549 	69.5730   	-5.731262   
 1550 	69.6180   	-5.228149   
 1551 	69.6629   	-4.796936   
 1552 	69.7079   	-6.450012   
 1553 	69.7528   	-6.737548   
 1554 	69.7978   	-7.456298   
 1555 	69.8427   	-7.240661   
 1556 	69.8876   	-5.731262   
 1557 	69.9326   	-6.306274   
 1558 	69.9775   	-6.881287   
 1559 	70.0225   	-7.743774   
 1560 	70.0674   	-7.312561   
 1561 	70.1124   	-7.600037   
 1562 	70.1573   	-8.103149   
 1563 	70.2022   	-7.456298   
 1564 	70.2472   	-6.234436   
 1565 	70.2921   	-6.450012   
 1566 	70.3371   	-6.090637   
 1567 	70.3820   	-5.731262   
 1568 	70.4270   	-6.162536   
 1569 	70.4719   	-5.659424   
 1570 	70.5169   	-5.946899   
 1571 	70.5618   	-5.659424   
 1572 	70.6067   	-5.012512   
 1573 	70.6517   	-5.156311   
 1574 	70.6966   	-5.012512   
 1575 	70.7416   	-4.509399   
 1576 	70.7865   	-5.084412   
 1577 	70.8315   	-5.659424   
 1578 	70.8764   	-6.018798   
 1579 	70.9213   	-6.162536   
 1580 	70.9663   	-5.659424   
 1581 	71.0112   	-5.875061   
 1582 	71.0562   	-5.587524   
 1583 	71.1011   	-5.587524   
 1584 	71.1461   	-5.443786   
 1585 	71.1910   	-5.875061   
 1586 	71.2360   	-5.803162   
 1587 	71.2809   	-5.731262   
 1588 	71.3258   	-5.084412   
 1589 	71.3708   	-5.731262   
 1590 	71.4157   	-5.946899   
 1591 	71.4607   	-5.443786   
 1592 	71.5056   	-5.946899   
 1593 	71.5506   	-5.515686   
 1594 	71.5955   	-4.796936   
 1595 	71.6405   	-4.940673   
 1596 	71.6854   	-5.228149   
 1597 	71.7303   	-5.731262   
 1598 	71.7753   	-5.587524   
 1599 	71.8202   	-5.659424   
 1600 	71.8652   	-5.659424   
 1601 	71.9101   	-5.803162   
 1602 	71.9551   	-5.875061   
 1603 	72.0000   	-5.156311   
 1604 	72.0449   	-4.940673   
 1605 	72.0899   	-5.587524   
 1606 	72.1348   	-5.731262   
 1607 	72.1798   	-5.875061   
 1608 	72.2247   	-6.665649   
 1609 	72.2697   	-6.018798   
 1610 	72.3146   	-5.946899   
 1611 	72.3596   	-5.515686   
 1612 	72.4045   	-6.306274   
 1613 	72.4494   	-5.946899   
 1614 	72.4944   	-6.234436   
 1615 	72.5393   	-5.515686   
 1616 	72.5843   	-6.018798   
 1617 	72.6292   	-5.587524   
 1618 	72.6742   	-5.371887   
 1619 	72.7191   	-5.156311   
 1620 	72.7640   	-5.731262   
 1621 	72.8090   	-5.084412   
 1622 	72.8539   	-4.868774   
 1623 	72.8989   	-6.162536   
 1624 	72.9438   	-5.946899   
 1625 	72.9888   	-6.593811   
 1626 	73.0337   	-5.946899   
 1627 	73.0787   	-6.881287   
 1628 	73.1236   	-6.953186   
 1629 	73.1685   	-6.737548   
 1630 	73.2135   	-6.521911   
 1631 	73.2584   	-7.025024   
 1632 	73.3034   	-6.953186   
 1633 	73.3483   	-6.881287   
 1634 	73.3933   	-7.168762   
 1635 	73.4382   	-6.665649   
 1636 	73.4831   	-6.521911   
 1637 	73.5281   	-6.809387   
 1638 	73.5730   	-6.090637   
 1639 	73.6180   	-5.731262   
 1640 	73.6629   	-6.162536   
 1641 	73.7079   	-5.803162   
 1642 	73.7528   	-6.234436   
 1643 	73.7978   	-6.521911   
 1644 	73.8427   	-6.953186   
 1645 	73.8876   	-6.521911   
 1646 	73.9326   	-6.665649   
 1647 	73.9775   	-5.875061   
 1648 	74.0225   	-5.946899   
 1649 	74.0674   	-5.803162   
 1650 	74.1124   	-5.228149   
 1651 	74.1573   	-5.731262   
 1652 	74.2022   	-5.371887   
 1653 	74.2472   	-7.312561   
 1654 	74.2921   	-7.600037   
 1655 	74.3371   	-7.240661   
 1656 	74.3820   	-6.450012   
 1657 	74.4270   	-6.665649   
 1658 	74.4719   	-6.665649   
 1659 	74.5169   	-6.521911   
 1660 	74.5618   	-5.946899   
 1661 	74.6067   	-6.018798   
 1662 	74.6517   	-6.090637   
 1663 	74.6966   	-5.659424   
 1664 	74.7416   	-6.306274   
 1665 	74.7865   	-7.025024   
 1666 	74.8315   	-6.378174   
 1667 	74.8764   	-6.018798   
 1668 	74.9213   	-5.659424   
 1669 	74.9663   	-5.946899   
 1670 	75.0112   	-5.228149   
 1671 	75.0562   	-5.946899   
 1672 	75.1011   	-6.234436   
 1673 	75.1461   	-6.450012   
 1674 	75.1910   	-6.234436   
 1675 	75.2360   	-6.521911   
 1676 	75.2809   	-7.312561   
 1677 	75.3258   	-7.743774   
 1678 	75.3708   	-7.240661   
 1679 	75.4157   	-6.450012   
 1680 	75.4607   	-7.240661   
 1681 	75.5056   	-5.803162   
 1682 	75.5506   	-6.234436   
 1683 	75.5955   	-5.875061   
 1684 	75.6405   	-6.306274   
 1685 	75.6854   	-6.881287   
 1686 	75.7303   	-6.593811   
 1687 	75.7753   	-7.025024   
 1688 	75.8202   	-6.162536   
 1689 	75.8652   	-6.593811   
 1690 	75.9101   	-7.096924   
 1691 	75.9551   	-6.593811   
 1692 	76.0000   	-5.659424   
 1693 	76.0449   	-6.162536   
 1694 	76.0899   	-6.090637   
 1695 	76.1348   	-6.234436   
 1696 	76.1798   	-5.875061   
 1697 	76.2247   	-5.659424   
 1698 	76.2697   	-4.725037   
 1699 	76.3146   	-5.371887   
 1700 	76.3596   	-5.587524   
 1701 	76.4045   	-5.084412   
 1702 	76.4494   	-5.156311   
 1703 	76.4944   	-4.653137   
 1704 	76.5393   	-5.803162   
 1705 	76.5843   	-4.796936   
 1706 	76.6292   	-5.803162   
 1707 	76.6742   	-5.443786   
 1708 	76.7191   	-5.156311   
 1709 	76.7640   	-5.731262   
 1710 	76.8090   	-5.587524   
 1711 	76.8539   	-5.084412   
 1712 	76.8989   	-5.084412   
 1713 	76.9438   	-5.371887   
 1714 	76.9888   	-5.371887   
 1715 	77.0337   	-5.012512   
 1716 	77.0787   	-4.006287   
 1717 	77.1236   	-5.156311   
 1718 	77.1685   	-4.293762   
 1719 	77.2135   	-5.443786   
 1720 	77.2584   	-5.300049   
 1721 	77.3034   	-4.365662   
 1722 	77.3483   	-4.940673   
 1723 	77.3933   	-5.228149   
 1724 	77.4382   	-5.084412   
 1725 	77.4831   	-4.437561   
 1726 	77.5281   	-5.228149   
 1727 	77.5730   	-5.084412   
 1728 	77.6180   	-5.300049   
 1729 	77.6629   	-4.725037   
 1730 	77.7079   	-4.868774   
 1731 	77.7528   	-5.228149   
 1732 	77.7978   	-5.084412   
 1733 	77.8427   	-5.156311   
 1734 	77.8876   	-5.156311   
 1735 	77.9326   	-5.731262   
 1736 	77.9775   	-5.300049   
 1737 	78.0225   	-5.515686   
 1738 	78.0674   	-5.587524   
 1739 	78.1124   	-5.587524   
 1740 	78.1573   	-6.521911   
 1741 	78.2022   	-6.450012   
 1742 	78.2472   	-5.803162   
 1743 	78.2921   	-5.659424   
 1744 	78.3371   	-4.940673   
 1745 	78.3820   	-5.156311   
 1746 	78.4270   	-5.084412   
 1747 	78.4719   	-4.653137   
 1748 	78.5169   	-4.796936   
 1749 	78.5618   	-4.509399   
 1750 	78.6067   	-4.365662   
 1751 	78.6517   	-4.581298   
 1752 	78.6966   	-5.659424   
 1753 	78.7416   	-4.725037   
 1754 	78.7865   	-5.443786   
 1755 	78.8315   	-5.012512   
 1756 	78.8764   	-4.725037   
 1757 	78.9213   	-3.934387   
 1758 	78.9663   	-4.293762   
 1759 	79.0112   	-4.365662   
 1760 	79.0562   	-4.293762   
 1761 	79.1011   	-4.868774   
 1762 	79.1461   	-4.509399   
 1763 	79.1910   	-5.228149   
 1764 	79.2360   	-5.371887   
 1765 	79.2809   	-5.443786   
 1766 	79.3258   	-5.515686   
 1767 	79.3708   	-5.731262   
 1768 	79.4157   	-4.796936   
 1769 	79.4607   	-5.443786   
 1770 	79.5056   	-4.293762   
 1771 	79.5506   	-5.156311   
 1772 	79.5955   	-4.293762   
 1773 	79.6405   	-4.868774   
 1774 	79.6854   	-5.443786   
 1775 	79.7303   	-6.018798   
 1776 	79.7753   	-5.371887   
 1777 	79.8202   	-5.012512   
 1778 	79.8652   	-5.371887   
 1779 	79.9101   	-4.509399   
 1780 	79.9551   	-5.012512   
 1781 	80.0000   	-5.659424   
 1782 	80.0449   	-5.371887   
 1783 	80.0899   	-4.796936   
 1784 	80.1348   	-4.940673   
 1785 	80.1798   	-4.293762   
 1786 	80.2247   	-5.084412   
 1787 	80.2697   	-3.359436   
 1788 	80.3146   	-3.934387   
 1789 	80.3596   	-4.078186   
 1790 	80.4045   	-3.143799   
 1791 	80.4494   	-3.646911   
 1792 	80.4944   	-3.287536   
 1793 	80.5393   	-2.928161   
 1794 	80.5843   	-2.928161   
 1795 	80.6292   	-3.646911   
 1796 	80.6742   	-4.078186   
 1797 	80.7191   	-3.790649   
 1798 	80.7640   	-4.150024   
 1799 	80.8090   	-3.287536   
 1800 	80.8539   	-3.862549   
 1801 	80.8989   	-3.718811   
 1802 	80.9438   	-4.150024   
 1803 	80.9888   	-3.359436   
 1804 	81.0337   	-3.215637   
 1805 	81.0787   	-3.790649   
 1806 	81.1236   	-3.862549   
 1807 	81.1685   	-4.078186   
 1808 	81.2135   	-3.359436   
 1809 	81.2584   	-4.437561   
 1810 	81.3034   	-3.646911   
 1811 	81.3483   	-3.575012   
 1812 	81.3933   	-3.790649   
 1813 	81.4382   	-4.868774   
 1814 	81.4831   	-4.437561   
 1815 	81.5281   	-4.725037   
 1816 	81.5730   	-3.862549   
 1817 	81.6180   	-3.143799   
 1818 	81.6629   	-2.928161   
 1819 	81.7079   	-3.071899   
 1820 	81.7528   	-2.712524   
 1821 	81.7978   	-3.215637   
 1822 	81.8427   	-2.065674   
 1823 	81.8876   	-1.634399   
 1824 	81.9326   	-0.700012   
 1825 	81.9775   	-0.843811   
 1826 	82.0225   	-1.418762   
 1827 	82.0674   	-2.209412   
 1828 	82.1124   	-1.993774   
 1829 	82.1573   	-2.353149   
 1830 	82.2022   	-2.928161   
 1831 	82.2472   	-2.353149   
 1832 	82.2921   	-2.568787   
 1833 	82.3371   	-2.496887   
 1834 	82.3820   	-2.209412   
 1835 	82.4270   	-3.071899   
 1836 	82.4719   	-2.856262   
 1837 	82.5169   	-2.784424   
 1838 	82.5618   	-2.928161   
 1839 	82.6067   	-2.856262   
 1840 	82.6517   	-2.137512   
 1841 	82.6966   	-3.646911   
 1842 	82.7416   	-3.503174   
 1843 	82.7865   	-4.006287   
 1844 	82.8315   	-4.006287   
 1845 	82.8764   	-3.575012   
 1846 	82.9213   	-3.000061   
 1847 	82.9663   	-3.646911   
 1848 	83.0112   	-3.503174   
 1849 	83.0562   	-3.215637   
 1850 	83.1011   	-2.928161   
 1851 	83.1461   	-2.137512   
 1852 	83.1910   	-1.778137   
 1853 	83.2360   	-1.418762   
 1854 	83.2809   	-2.281311   
 1855 	83.3258   	-2.353149   
 1856 	83.3708   	-3.359436   
 1857 	83.4157   	-3.215637   
 1858 	83.4607   	-3.646911   
 1859 	83.5056   	-3.646911   
 1860 	83.5506   	-2.712524   
 1861 	83.5955   	-2.209412   
 1862 	83.6405   	-2.425049   
 1863 	83.6854   	-1.993774   
 1864 	83.7303   	-2.065674   
 1865 	83.7753   	-1.562561   
 1866 	83.8202   	-1.418762   
 1867 	83.8652   	-2.065674   
 1868 	83.9101   	-1.634399   
 1869 	83.9551   	-2.065674   
 1870 	84.0000   	-2.568787   
 1871 	84.0449   	-2.496887   
 1872 	84.0899   	-2.496887   
 1873 	84.1348   	-2.065674   
 1874 	84.1798   	-2.065674   
 1875 	84.2247   	-2.353149   
 1876 	84.2697   	-3.359436   
 1877 	84.3146   	-2.856262   
 1878 	84.3596   	-2.640686   
 1879 	84.4045   	-1.921936   
 1880 	84.4494   	-2.640686   
 1881 	84.4944   	-2.640686   
 1882 	84.5393   	-1.921936   
 1883 	84.5843   	-2.137512   
 1884 	84.6292   	-3.000061   
 1885 	84.6742   	-4.221923   
 1886 	84.7191   	-4.221923   
 1887 	84.7640   	-3.431274   
 1888 	84.8090   	-3.287536   
 1889 	84.8539   	-2.928161   
 1890 	84.8989   	-2.928161   
 1891 	84.9438   	-3.071899   
 1892 	84.9888   	-3.431274   
 1893 	85.0337   	-3.359436   
 1894 	85.0787   	-3.934387   
 1895 	85.1236   	-3.215637   
 1896 	85.1685   	-3.646911   
 1897 	85.2135   	-4.006287   
 1898 	85.2584   	-4.006287   
 1899 	85.3034   	-4.581298   
 1900 	85.3483   	-5.012512   
 1901 	85.3933   	-4.725037   
 1902 	85.4382   	-5.156311   
 1903 	85.4831   	-4.221923   
 1904 	85.5281   	-3.575012   
 1905 	85.5730   	-3.718811   
 1906 	85.6180   	-2.928161   
 1907 	85.6629   	-2.928161   
 1908 	85.7079   	-2.856262   
 1909 	85.7528   	-3.215637   
 1910 	85.7978   	-3.503174   
 1911 	85.8427   	-4.006287   
 1912 	85.8876   	-4.437561   
 1913 	85.9326   	-4.221923   
 1914 	85.9775   	-3.718811   
 1915 	86.0225   	-4.078186   
 1916 	86.0674   	-3.287536   
 1917 	86.1124   	-4.078186   
 1918 	86.1573   	-3.431274   
 1919 	86.2022   	-3.503174   
 1920 	86.2472   	-3.575012   
 1921 	86.2921   	-3.143799   
 1922 	86.3371   	-2.712524   
 1923 	86.3820   	-3.503174   
 1924 	86.4270   	-4.653137   
 1925 	86.4719   	-4.006287   
 1926 	86.5169   	-4.006287   
 1927 	86.5618   	-4.940673   
 1928 	86.6067   	-4.293762   
 1929 	86.6517   	-4.150024   
 1930 	86.6966   	-3.718811   
 1931 	86.7416   	-3.718811   
 1932 	86.7865   	-3.143799   
 1933 	86.8315   	-3.934387   
 1934 	86.8764   	-3.431274   
 1935 	86.9213   	-3.646911   
 1936 	86.9663   	-3.431274   
 1937 	87.0112   	-2.784424   
 1938 	87.0562   	-1.490662   
 1939 	87.1011   	-2.425049   
 1940 	87.1461   	-3.143799   
 1941 	87.1910   	-3.287536   
 1942 	87.2360   	-3.431274   
 1943 	87.2809   	-3.862549   
 1944 	87.3258   	-3.359436   
 1945 	87.3708   	-3.790649   
 1946 	87.4157   	-3.000061   
 1947 	87.4607   	-2.640686   
 1948 	87.5056   	-3.071899   
 1949 	87.5506   	-3.646911   
 1950 	87.5955   	-3.359436   
 1951 	87.6405   	-2.209412   
 1952 	87.6854   	-2.496887   
 1953 	87.7303   	-2.568787   
 1954 	87.7753   	-2.568787   
 1955 	87.8202   	-2.784424   
 1956 	87.8652   	-3.071899   
 1957 	87.9101   	-4.078186   
 1958 	87.9551   	-3.359436   
 1959 	88.0000   	-2.856262   
 1960 	88.0449   	-2.784424   
 1961 	88.0899   	-2.496887   
 1962 	88.1348   	-1.850037   
 1963 	88.1798   	-1.706299   
 1964 	88.2247   	-1.778137   
 1965 	88.2697   	-0.915649   
 1966 	88.3146   	-1.562561   
 1967 	88.3596   	-1.778137   
 1968 	88.4045   	-1.921936   
 1969 	88.4494   	-2.425049   
 1970 	88.4944   	-2.640686   
 1971 	88.5393   	-2.353149   
 1972 	88.5843   	-3.431274   
 1973 	88.6292   	-3.575012   
 1974 	88.6742   	-3.431274   
 1975 	88.7191   	-2.640686   
 1976 	88.7640   	-2.425049   
 1977 	88.8090   	-3.143799   
 1978 	88.8539   	-3.287536   
 1979 	88.8989   	-2.568787   
 1980 	88.9438   	-2.209412   
 1981 	88.9888   	-2.065674   
 1982 	89.0337   	-2.137512   
 1983 	89.0787   	-3.000061   
 1984 	89.1236   	-3.359436   
 1985 	89.1685   	-3.000061   
 1986 	89.2135   	-3.575012   
 1987 	89.2584   	-3.575012   
 1988 	89.3034   	-3.215637   
 1989 	89.3483   	-2.137512   
 1990 	89.3933   	-1.490662   
 1991 	89.4382   	-2.065674   
 1992 	89.4831   	-2.137512   
 1993 	89.5281   	-3.287536   
 1994 	89.5730   	-3.287536   
 1995 	89.6180   	-2.496887   
 1996 	89.6629   	-2.065674   
 1997 	89.7079   	-2.568787   
 1998 	89.7528   	-3.575012   
 1999 	89.7978   	-3.000061   
 2000 	89.8427   	-2.137512   
 2001 	89.8876   	-3.215637   
 2002 	89.9326   	-2.568787   
 2003 	89.9775   	-3.143799   
 2004 	90.0225   	-3.287536   
 2005 	90.0674   	-2.496887   
 2006 	90.1124   	-2.784424   
 2007 	90.1573   	-2.425049   
 2008 	90.2022   	-3.215637   
 2009 	90.2472   	-2.712524   
 2010 	90.2921   	-3.071899   
 2011 	90.3371   	-2.928161   
 2012 	90.3820   	-2.712524   
 2013 	90.4270   	-3.287536   
 2014 	90.4719   	-2.784424   
 2015 	90.5169   	-2.209412   
 2016 	90.5618   	-1.346924   
 2017 	90.6067   	-1.346924   
 2018 	90.6517   	-2.353149   
 2019 	90.6966   	-1.778137   
 2020 	90.7416   	-1.562561   
 2021 	90.7865   	-1.993774   
 2022 	90.8315   	-2.137512   
 2023 	90.8764   	-1.706299   
 2024 	90.9213   	-2.137512   
 2025 	90.9663   	-2.353149   
 2026 	91.0112   	-2.425049   
 2027 	91.0562   	-2.425049   
 2028 	91.1011   	-2.784424   
 2029 	91.1461   	-2.137512   
 2030 	91.1910   	-2.784424   
 2031 	91.2360   	-2.856262   
 2032 	91.2809   	-3.359436   
 2033 	91.3258   	-3.431274   
 2034 	91.3708   	-3.646911   
 2035 	91.4157   	-3.215637   
 2036 	91.4607   	-3.071899   
 2037 	91.5056   	-3.503174   
 2038 	91.5506   	-2.425049   
 2039 	91.5955   	-2.353149   
 2040 	91.6405   	-2.640686   
 2041 	91.6854   	-2.353149   
 2042 	91.7303   	-2.496887   
 2043 	91.7753   	-2.137512   
 2044 	91.8202   	-2.856262   
 2045 	91.8652   	-2.856262   
 2046 	91.9101   	-3.287536   
 2047 	91.9551   	-3.790649   
 2048 	92.0000   	-3.503174   

